# Wilkinson Microwave Anisotropy Probe (WMAP) 7-year data release.
# WMAP 7-Year Combined TE Power Spectrum, version 4.1 (June 2010)
#
# References: - WMAP Explanatory Supplement: http://lambda.gsfc.nasa.gov/
#             - Larson, et.al. (2010)
#
# Column 1 = multipole moment l
# Column 2 = TE power spectrum, units = uK^2, =  l(l+1)/2pi * C_l.
# Column 3 = 'Error' derived from diagonal terms of Fisher matrix, units = uK^2.
#             Included only as an estimate of their magnitude.  The
#             multipole moments are slightly coupled, so a correct
#             treatment of errors requires use of the entire Fisher matrix.
# Column 4 = portion of column3 error attributed to measurement errors,
#             sqrt[(Nl_tt * Cl_ee + Nl_ee * Cl_tt + N_tt * N_ee) / ((2l+1) fsky_te)],
#             in "2SN + NN" form, units = uK^2.
# Column 5 = portion of column3 error attributed to cosmic variance, 
#             sqrt[(Cl_ee * Cl_tt + Cl_te^2) / ((2l+1) fsky_te)],
#             assuming the best-fit LCDM model
#
           2         2.6332         5.9047         2.6298         5.2867
           3        -7.7188         6.1455         2.8632         5.4378
           4        -2.5280         5.6974         3.0343         4.8221
           5         2.4054         5.0446         3.1833         3.9135
           6         3.1435         4.4582         3.3247         2.9701
           7         1.4450         4.0752         3.4663         2.1429
           8        -0.4339         3.9155         3.6097         1.5170
           9         2.5949         3.9195         3.7547         1.1247
          10         5.3008         4.0110         3.9024         0.9271
          11        -0.8883         4.1358         4.0522         0.8274
          12        -3.1111         4.2702         4.2041         0.7484
          13        -2.7852         4.4110         4.3587         0.6777
          14         2.5671         4.5574         4.5149         0.6210
          15         5.9903         4.7045         4.6679         0.5861
          16         3.6922         4.8484         4.8139         0.5773
          17        -4.0265         4.9979         4.9638         0.5827
          18        -8.8215         5.1615         5.1277         0.5902
          19         8.3454         5.3305         5.2970         0.5965
          20         5.8434         5.4942         5.4612         0.6013
          21        -0.5162         5.6549         5.6218         0.6109
          22        -1.5268         5.8172         5.7830         0.6299
          23        -0.1981         5.9818         5.9456         0.6568
          24        -7.0950         6.1481         6.1093         0.6888
          25         7.0003         6.3150         6.2733         0.7243
          26         6.2765         6.4819         6.4369         0.7619
          27        -2.6917         6.6497         6.6013         0.8009
          28        -5.3911         6.8199         6.7678         0.8406
          29        18.4536         6.9912         6.9355         0.8806
          30         0.9526         7.1622         7.1028         0.9205
          31       -13.0271         7.3334         7.2703         0.9595
          32        -2.7864         7.5058         7.4392         0.9974
          33         6.5024         7.6792         7.6091         1.0352
          34         2.1006         7.8535         7.7797         1.0740
          35         2.0818         8.0288         7.9512         1.1137
          36         0.1918         8.2051         8.1235         1.1546
          37       -13.7525         8.3824         8.2966         1.1964
          38         9.6588         8.5615         8.4714         1.2388
          39         5.4360         8.7413         8.6468         1.2820
          40         4.4532         8.9226         8.8235         1.3259
          41         1.9864         9.1042         9.0004         1.3706
          42        13.2560         9.2870         9.1784         1.4161
          43       -10.6522         9.4710         9.3575         1.4623
          44        -1.0518         9.6563         9.5376         1.5093
          45       -10.3425         9.8424         9.7185         1.5569
          46         5.4428        10.0298         9.9005         1.6054
          47         1.4235        10.2186        10.0838         1.6546
          48        -8.0204        10.4086        10.2681         1.7045
          49       -12.6829        10.6002        10.4539         1.7551
          50         9.9279        10.7928        10.6406         1.8064
          51         1.3226        10.9866        10.8283         1.8582
          52       -28.1240        11.1822        11.0177         1.9108
          53         3.2349        11.3784        11.2076         1.9640
          54        -7.1799        11.5764        11.3991         2.0179
          55         6.9093        11.7757        11.5918         2.0726
          56        -3.0035        11.9766        11.7860         2.1283
          57        -1.6522        12.1793        11.9818         2.1847
          58        10.6748        12.3832        12.1785         2.2420
          59        10.9668        12.5884        12.3765         2.3000
          60        -6.5847        12.7956        12.5763         2.3588
          61         1.1551        13.0041        12.7773         2.4185
          62        -7.3988        13.2145        12.9799         2.4788
          63        16.0879        13.4265        13.1840         2.5400
          64        -3.0838        13.6399        13.3894         2.6018
          65        10.8856        13.8550        13.5964         2.6642
          66         1.3097        14.0717        13.8049         2.7271
          67       -11.7505        14.2905        14.0154         2.7908
          68        -1.9970        14.5106        14.2270         2.8549
          69        -0.2808        14.7324        14.4402         2.9196
          70       -11.0275        14.9559        14.6550         2.9848
          71       -29.7500        15.1812        14.8716         3.0506
          72       -10.7576        15.4081        15.0896         3.1169
          73       -23.3950        15.6367        15.3092         3.1838
          74        -0.6961        15.8673        15.5307         3.2511
          75        13.6495        16.0996        15.7538         3.3189
          76        -6.5033        16.3338        15.9787         3.3872
          77        10.8200        16.5692        16.2048         3.4558
          78       -19.7830        16.8067        16.4329         3.5247
          79         5.3424        17.0462        16.6630         3.5940
          80       -44.7379        17.2872        16.8946         3.6635
          81         2.4058        17.5299        17.1278         3.7331
          82       -18.8981        17.7747        17.3631         3.8029
          83        19.0863        18.0211        17.6000         3.8728
          84        -8.0371        18.2691        17.8386         3.9427
          85       -19.2853        18.5191        18.0791         4.0128
          86         9.0815        18.7711        18.3217         4.0829
          87       -30.2852        19.0248        18.5660         4.1529
          88       -30.0060        19.2805        18.8124         4.2229
          89       -37.2931        19.5379        19.0604         4.2929
          90       -18.3294        19.7968        19.3101         4.3626
          91       -34.4743        20.0579        19.5620         4.4322
          92       -32.5486        20.3206        19.8157         4.5016
          93        10.6071        20.5848        20.0710         4.5707
          94       -16.7973        20.8507        20.3280         4.6395
          95       -21.2233        21.1183        20.5869         4.7078
          96       -30.1967        21.3879        20.8479         4.7758
          97        -2.3267        21.6586        21.1102         4.8432
          98        29.9369        21.9315        21.3747         4.9103
          99       -23.5787        22.2054        21.6406         4.9766
         100       -15.6996        22.4816        21.9088         5.0424
         101       -48.9921        22.7588        22.1783         5.1075
         102       -60.1435        23.0381        22.4501         5.1719
         103       -20.3677        23.3186        22.7233         5.2356
         104       -27.6272        23.6008        22.9984         5.2984
         105        -6.7089        23.8845        23.2752         5.3604
         106       -22.1043        24.1695        23.5536         5.4215
         107       -48.8591        24.4565        23.8342         5.4817
         108       -47.6314        24.7447        24.1163         5.5408
         109        -6.0945        25.0340        24.3999         5.5990
         110        -9.0894        25.3255        24.6858         5.6561
         111        -1.3929        25.6178        24.9729         5.7120
         112         6.3215        25.9120        25.2621         5.7668
         113       -22.1001        26.2076        25.5530         5.8205
         114       -60.3021        26.5042        25.8454         5.8728
         115         8.8657        26.8021        26.1393         5.9239
         116       -17.4513        27.1017        26.4351         5.9737
         117      -116.0503        27.4025        26.7326         6.0221
         118       -76.5594        27.7041        27.0312         6.0691
         119       -82.3299        28.0074        27.3318         6.1148
         120       -73.2502        28.3119        27.6339         6.1589
         121       -50.9461        28.6173        27.9373         6.2014
         122       -48.6230        28.9239        28.2422         6.2426
         123       -44.8074        29.2317        28.5487         6.2821
         124       -45.0451        29.5404        28.8564         6.3199
         125       -49.2300        29.8504        29.1658         6.3563
         126       -10.6696        30.1613        29.4764         6.3908
         127        27.8613        30.4729        29.7882         6.4235
         128       -90.7253        30.7859        30.1017         6.4545
         129         7.4701        31.0999        30.4165         6.4836
         130       -41.0871        31.4144        30.7323         6.5111
         131       -60.9201        31.7304        31.0498         6.5364
         132       -15.9360        32.0461        31.3675         6.5599
         133       -56.1974        32.3637        31.6875         6.5815
         134       -33.6496        32.6816        32.0081         6.6010
         135       -42.3576        33.0006        32.3301         6.6187
         136       -96.9743        33.3202        32.6530         6.6345
         137      -107.7498        33.6404        32.9770         6.6482
         138       -70.0628        33.9611        33.3017         6.6599
         139         1.0346        34.2827        33.6276         6.6695
         140       -19.6258        34.6047        33.9544         6.6773
         141      -108.7756        34.9277        34.2824         6.6829
         142        -8.9777        35.2506        34.6107         6.6864
         143       -67.4154        35.5745        34.9402         6.6880
         144       -48.8459        35.8987        35.2703         6.6874
         145       -32.6675        36.2231        35.6010         6.6846
         146       -28.9052        36.5487        35.9331         6.6798
         147       -80.9374        36.8741        36.2653         6.6730
         148       -43.6133        37.1993        36.5976         6.6637
         149         7.7217        37.5256        36.9312         6.6527
         150       -37.0333        37.8520        37.2652         6.6391
         151       -53.7924        38.1790        37.6001         6.6236
         152        -9.8246        38.5056        37.9347         6.6058
         153       -20.5592        38.8323        38.2698         6.5858
         154       -22.2584        39.1601        38.6061         6.5638
         155       -11.7813        39.4875        38.9421         6.5400
         156       -52.3420        39.8155        39.2790         6.5139
         157        -1.5336        40.1430        39.6156         6.4859
         158       -36.5777        40.4711        39.9528         6.4560
         159       -49.9357        40.7990        40.2900         6.4242
         160       -62.2174        41.1279        40.6284         6.3907
         161      -122.5846        41.4564        40.9664         6.3554
         162        -4.5507        41.7853        41.3049         6.3182
         163      -102.8831        42.1138        41.6430         6.2793
         164       -96.9657        42.4429        41.9819         6.2389
         165       -96.0902        42.7715        42.3202         6.1967
         166       -74.7889        43.1006        42.6592         6.1530
         167       -79.4901        43.4297        42.9981         6.1078
         168      -125.1110        43.7588        43.3370         6.0611
         169      -130.1739        44.0885        43.6765         6.0130
         170       -23.3545        44.4171        44.0149         5.9636
         171       -12.3478        44.7464        44.3541         5.9128
         172       -13.3747        45.0752        44.6926         5.8608
         173       -60.0109        45.4048        45.0319         5.8076
         174       -63.6185        45.7338        45.3705         5.7533
         175        -2.7192        46.0626        45.7088         5.6980
         176       -47.5096        46.3913        46.0470         5.6416
         177       -42.9030        46.7197        46.3847         5.5845
         178      -107.3849        47.0484        46.7226         5.5266
         179        -4.6734        47.3766        47.0600         5.4681
         180       -60.0437        47.7044        47.3967         5.4092
         181        59.5175        48.0324        47.7335         5.3501
         182        -5.5771        48.3599        48.0696         5.2908
         183       -50.0851        48.6867        48.4049         5.2315
         184       -48.6792        49.0139        48.7402         5.1725
         185        15.9278        49.3405        49.0747         5.1138
         186        10.7154        49.6664        49.4084         5.0558
         187        -0.1345        49.9918        49.7413         4.9985
         188       -79.9599        50.3173        50.0740         4.9422
         189       -54.3825        50.6418        50.4055         4.8871
         190       -77.1688        50.9658        50.7361         4.8334
         191       -41.6971        51.2895        51.0662         4.7813
         192      -101.2619        51.6120        51.3947         4.7310
         193       -36.4780        51.9342        51.7226         4.6828
         194       -74.2617        52.2559        52.0497         4.6370
         195       -11.5717        52.5766        52.3756         4.5938
         196       -60.7474        52.8962        52.6998         4.5534
         197       -44.1611        53.2150        53.0230         4.5160
         198       -84.3270        53.5329        53.3450         4.4820
         199       -17.7284        53.8496        53.6653         4.4515
         200        88.3451        54.1659        53.9848         4.4250
         201        10.8454        54.4807        54.3025         4.4024
         202        50.3310        54.7946        54.6189         4.3841
         203         9.5648        55.1071        54.9335         4.3703
         204       -18.8507        55.4183        55.2464         4.3612
         205        81.3458        55.7287        55.5581         4.3571
         206       120.7712        56.0376        55.8679         4.3579
         207       -70.8740        56.3458        56.1765         4.3639
         208        37.6052        56.6523        56.4831         4.3752
         209        29.6144        56.9577        56.7881         4.3918
         210         4.3991        57.2618        57.0915         4.4138
         211        72.9029        57.5647        57.3931         4.4413
         212       -95.1441        57.8664        57.6932         4.4741
         213       -45.6028        58.1666        57.9913         4.5124
         214         5.3602        58.4654        58.2876         4.5560
         215       -10.6832        58.7626        58.5819         4.6048
         216       -27.4472        59.0586        58.8746         4.6588
         217       -36.8160        59.3529        59.1651         4.7179
         218       -24.7003        59.6460        59.4541         4.7818
         219       -44.6484        59.9373        59.7407         4.8505
         220      -151.1342        60.2273        60.0257         4.9237
         221        39.3836        60.5155        60.3085         5.0014
         222        82.5905        60.8023        60.5894         5.0833
         223        40.1291        61.0871        60.8680         5.1692
         224       -79.0784        61.3706        61.1449         5.2589
         225        43.7192        61.6517        61.4189         5.3523
         226       122.4416        61.9319        61.6917         5.4493
         227       -52.7487        62.2094        61.9614         5.5493
         228         0.7604        62.4855        62.2293         5.6526
         229       -24.7754        62.7593        62.4945         5.7585
         230        48.2526        63.0317        62.7581         5.8673
         231        90.2195        63.3019        63.0190         5.9786
         232        29.6750        63.5699        63.2773         6.0924
         233       146.8703        63.8355        63.5329         6.2081
         234       -13.4609        64.0994        63.7865         6.3259
         235        69.7692        64.3610        64.0375         6.4454
         236        55.2501        64.6202        64.2857         6.5667
         237       -83.6662        64.8779        64.5321         6.6896
         238        26.9944        65.1325        64.7751         6.8139
         239        81.7431        65.3845        65.0152         6.9394
         240        72.1490        65.6348        65.2533         7.0660
         241        -5.1030        65.8816        65.4877         7.1936
         242       -11.7040        66.1266        65.7200         7.3222
         243        14.2586        66.3691        65.9495         7.4514
         244        94.2026        66.6084        66.1756         7.5813
         245        77.3230        66.8454        66.3990         7.7116
         246        19.3690        67.0790        66.6190         7.8425
         247        60.8575        67.3107        66.8367         7.9736
         248        67.4902        67.5385        67.0504         8.1047
         249        62.8432        67.7639        67.2616         8.2362
         250        67.7256        67.9863        67.4694         8.3677
         251       -89.2615        68.2053        67.6737         8.4990
         252        67.9030        68.4217        67.8753         8.6301
         253        31.0516        68.6348        68.0734         8.7609
         254        46.1341        68.8444        68.2678         8.8911
         255        87.1943        69.0511        68.4593         9.0208
         256        53.6906        69.2549        68.6478         9.1498
         257        27.2877        69.4549        68.8324         9.2778
         258       104.0337        69.6518        69.0139         9.4049
         259        -4.3684        69.8463        69.1929         9.5311
         260       136.5021        70.0367        69.3679         9.6561
