# Wilkinson Microwave Anisotropy Probe (WMAP) 7-year data release.
# WMAP 7-Year Combined TT Power Spectrum, version 4.1 (June 2010)
#
# References: - WMAP Explanatory Supplement: http://lambda.gsfc.nasa.gov/
#             - Larson, et.al. (2010)
#
# Column 1 = multipole moment l
# Column 2 = TT power spectrum, units = uK^2, = l(l+1)/2pi * C_l.
#             This uses the maximum likelihood of the marginalized distribution 
#             at that l, for l up to and including 32.  
#             For l > 32, the Master estimate is used.
# Column 3 = 'Error' derived from diagonal terms of Fisher matrix, units = uK^2.
#             Included only as an estimate of their magnitude.  The
#             multipole moments are slightly coupled, so a correct
#             treatment of errors requires use of the entire Fisher matrix.
# Column 4 = portion of column3 error attributed to measurement errors,
#             in "2SN + NN" form, units = uK^2.
# Column 5 = portion of column3 error attributed to cosmic variance, 
#             assuming the best-fit LCDM model
#
           2       200.8669       929.0538         4.8079       929.0413
           3      1050.6551       730.8405         5.1676       730.8223
           4       694.2891       600.6441         5.4431       600.6195
           5      1516.6019       512.8237         5.6891       512.7921
           6       668.6091       451.3475         5.9263       451.3086
           7      1375.1285       407.2187         6.1658       407.1720
           8       615.1197       374.5215         6.4099       374.4666
           9       671.8557       349.5210         6.6573       349.4576
          10       741.5825       330.1375         6.9098       330.0652
          11       944.4397       314.7948         7.1662       314.7133
          12       773.9083       302.4992         7.4264       302.4081
          13       781.1546       292.6239         7.6913       292.5228
          14       816.6047       284.5589         7.9592       284.4475
          15      1049.7436       277.3352         8.2211       277.2133
          16       590.9440       270.3979         8.4711       270.2652
          17      1044.9716       264.7959         8.7275       264.6521
          18       664.1794       261.3629         9.0085       261.2076
          19       848.1386       258.9693         9.2992       258.8023
          20       730.0336       256.4592         9.5806       256.2802
          21       652.8780       253.9846         9.8556       253.7933
          22       534.6604       251.8953        10.1315       251.6915
          23       751.2205       250.2017        10.4100       249.9850
          24       792.3003       248.8276        10.6900       248.5978
          25       759.6284       247.6718        10.9706       247.4287
          26       867.1429       246.6624        11.2504       246.4057
          27      1087.9582       245.8582        11.5313       245.5876
          28      1239.0935       245.3406        11.8161       245.0559
          29      1131.2484       245.0102        12.1027       244.7111
          30       864.0617       244.7380        12.3883       244.4242
          31      1124.2874       244.5630        12.6744       244.2343
          32      1525.7716       244.5448        12.9626       244.2010
          33      1129.0811       244.6514        13.2526       244.2922
          34      1146.0430       244.8530        13.5437       244.4781
          35       837.8152       245.1434        13.8362       244.7527
          36      1110.6870       245.5170        14.1300       245.1100
          37      1281.6460       245.9685        14.4251       245.5452
          38      1376.8700       246.5348        14.7229       246.0948
          39      1398.4880       247.1488        15.0218       246.6919
          40      1876.4240       247.8478        15.3227       247.3737
          41      1344.8230       248.5679        15.6240       248.0764
          42      1501.0460       249.3467        15.9270       248.8375
          43      1542.4449       250.1811        16.2316       249.6540
          44      1423.0031       251.0685        16.5380       250.5232
          45      1217.3929       251.9874        16.8455       251.4237
          46      1170.1290       252.9548        17.1549       252.3725
          47      1589.9611       253.9871        17.4666       253.3858
          48      1012.0920       255.0451        17.7796       254.4246
          49      1663.4399       256.1637        18.0952       255.5237
          50      1506.9570       257.3047        18.4121       256.6450
          51      1228.0811       258.4848        18.7309       257.8053
          52      1645.1920       259.7202        19.0523       259.0204
          53      1145.4969       260.9565        19.3744       260.2363
          54      1171.4980       262.2453        19.6992       261.5044
          55      1598.4449       263.5679        20.0262       262.8060
          56      1645.1490       264.9230        20.3551       264.1398
          57      1474.7629       266.3263        20.6869       265.5217
          58      1837.7419       267.7430        21.0199       266.9167
          59      1356.1639       269.1892        21.3551       268.3408
          60      2060.9490       270.6805        21.6938       269.8097
          61      1467.3430       272.1990        22.0340       271.3058
          62      2206.2410       273.7443        22.3765       272.8282
          63      1778.2880       275.3314        22.7218       274.3923
          64      1366.5300       276.9276        23.0686       275.9651
          65      1749.3420       278.5640        23.4188       277.5779
          66      1767.4561       280.2241        23.7710       279.2141
          67      1496.5490       281.9228        24.1262       280.8886
          68      1999.6520       283.6437        24.4838       282.5850
          69      2334.7229       285.3863        24.8437       284.3028
          70      1677.4530       287.1500        25.2056       286.0416
          71      1897.1960       288.9497        25.5709       287.8160
          72      1442.4990       290.7694        25.9384       289.6101
          73      2680.3049       292.6086        26.3086       291.4235
          74      2173.2351       294.4820        26.6816       293.2707
          75      1990.5850       296.3739        27.0567       295.1363
          76      1636.8900       298.2988        27.4354       297.0344
          77      1940.7760       300.2268        27.8156       298.9355
          78      1621.7190       302.1868        28.1993       300.8682
          79      1828.7679       304.1783        28.5857       302.8321
          80      2454.4961       306.1865        28.9752       304.8124
          81      2080.2271       308.2108        29.3668       306.8086
          82      3005.0510       310.2653        29.7616       308.8346
          83      2109.5391       312.3355        30.1589       310.8760
          84      1663.3280       314.4210        30.5589       312.9325
          85      2467.2859       316.5355        30.9620       315.0175
          86      2506.3369       318.6785        31.3682       317.1309
          87      2353.0610       320.8358        31.7771       319.2582
          88      2022.9130       323.0210        32.1893       321.4131
          89      2831.1809       325.2200        32.6040       323.5815
          90      2246.3679       327.4326        33.0218       325.7632
          91      2515.3081       329.6721        33.4424       327.9715
          92      2481.9851       331.9248        33.8659       330.1926
          93      2981.4990       334.1905        34.2920       332.4265
          94      2408.4060       336.4691        34.7205       334.6728
          95      2226.0491       338.7602        35.1518       336.9315
          96      2308.9819       341.0771        35.5867       339.2156
          97      2720.3491       343.3932        36.0234       341.4985
          98      1910.8870       345.7346        36.4636       343.8064
          99      2762.3721       348.0752        36.9057       346.1131
         100      3010.1770       350.4406        37.3514       348.4444
         101      2573.5879       352.8051        37.7991       350.7744
         102      2797.8291       355.1941        38.2505       353.1285
         103      2671.9829       357.5821        38.7037       355.4813
         104      3160.2051       359.9816        39.1597       357.8453
         105      2300.2561       362.3926        39.6186       360.2204
         106      2868.0901       364.8027        40.0796       362.5943
         107      3236.7241       367.2364        40.5440       364.9914
         108      3923.9041       369.6690        41.0105       367.3872
         109      3076.4060       372.1007        41.4793       369.7815
         110      3332.7939       374.5558        41.9516       372.1990
         111      2966.7371       376.9976        42.4255       374.6028
         112      3263.0750       379.4627        42.9028       377.0295
         113      2280.7261       381.9267        43.3825       379.4548
         114      2079.8159       384.3897        43.8642       381.8788
         115      3133.2910       386.8518        44.3483       384.3014
         116      3833.1421       389.3250        44.8354       386.7347
         117      4369.9170       391.7973        45.3248       389.1668
         118      4028.7290       394.2570        45.8154       391.5859
         119      3500.2781       396.7278        46.3093       394.0157
         120      2841.2620       399.1979        46.8053       396.4445
         121      4388.8579       401.6557        47.3030       398.8605
         122      3478.0740       404.1132        47.8031       401.2759
         123      3914.9070       406.5702        48.3054       403.6903
         124      2847.5610       409.0154        48.8094       406.0927
         125      3337.8420       411.4604        49.3157       408.4943
         126      3617.2061       413.8939        49.8237       410.8841
         127      3475.7729       416.3161        50.3335       413.2622
         128      3686.6121       418.7384        50.8456       415.6399
         129      3311.3279       421.1496        51.3592       418.0063
         130      3874.3230       423.5499        51.8748       420.3612
         131      3512.9590       425.9395        52.3921       422.7050
         132      3207.3379       428.3074        52.9104       425.0267
         133      3727.5249       430.6760        53.4310       427.3487
         134      3780.8030       433.0234        53.9528       429.6491
         135      4199.2720       435.3608        54.4763       431.9391
         136      4811.7622       437.6774        55.0009       434.2078
         137      4031.4971       439.9734        55.5265       436.4555
         138      4309.1689       442.2599        56.0539       438.6933
         139      4549.7119       444.5264        56.5826       440.9106
         140      4141.4468       446.7730        57.1122       443.1076
         141      4334.3799       448.9892        57.6424       445.2737
         142      4488.7100       451.1969        58.1744       447.4308
         143      4400.4780       453.3747        58.7070       449.5577
         144      3916.8369       455.5337        59.2404       451.6653
         145      5174.0239       457.6632        59.7744       453.7429
         146      3996.9341       459.7746        60.3097       455.8020
         147      4300.6328       461.8467        60.8445       457.8213
         148      3875.3550       463.9011        61.3807       459.8224
         149      3817.8650       465.9274        61.9172       461.7949
         150      4540.1250       467.9259        62.4543       463.7392
         151      4167.8721       469.8970        62.9921       465.6556
         152      4494.1460       471.8305        63.5293       467.5340
         153      4892.8281       473.7372        64.0668       469.3851
         154      4074.2371       475.6174        64.6053       471.2091
         155      4945.1851       477.4610        65.1432       472.9962
         156      4162.9648       479.2788        65.6822       474.7568
         157      4621.1118       481.0606        66.2206       476.4810
         158      5517.5859       482.8069        66.7588       478.1692
         159      5009.3149       484.5180        67.2966       479.8217
         160      4964.1138       486.2044        67.8354       481.4489
         161      4589.5181       487.8562        68.3737       483.0411
         162      4716.9819       489.4738        68.9116       484.5986
         163      4531.1211       491.0473        69.4488       486.1114
         164      5241.2109       492.5974        69.9866       487.6003
         165      4803.0830       494.1041        70.5233       489.0454
         166      4890.2681       495.5781        71.0606       490.4569
         167      5176.5820       497.0193        71.5963       491.8355
         168      5225.4570       498.4181        72.1317       493.1710
         169      5102.5459       499.7852        72.6676       494.4741
         170      4379.1982       501.1106        73.2008       495.7352
         171      4630.2192       502.3947        73.7338       496.9545
         172      5102.1631       503.6479        74.2670       498.1422
         173      4921.2090       504.8606        74.7995       499.2887
         174      4884.7290       506.0426        75.3305       500.4043
         175      4962.9829       507.1754        75.8612       501.4698
         176      4842.8960       508.2684        76.3903       502.4951
         177      4978.6118       509.3220        76.9177       503.4805
         178      4918.0122       510.3369        77.4436       504.4266
         179      6107.0879       511.3135        77.9706       505.3337
         180      5315.3530       512.2422        78.4962       506.1921
         181      4322.7080       513.1328        79.0185       507.0122
         182      4940.4990       513.9763        79.5393       507.7846
         183      4835.3521       514.7827        80.0601       508.5190
         184      5550.8608       515.5425        80.5774       509.2066
         185      5847.0859       516.2565        81.0951       509.8474
         186      5145.4741       516.9339        81.6091       510.4514
         187      5264.3452       517.5567        82.1222       510.9999
         188      6206.6860       518.1440        82.6342       511.5122
         189      5990.6401       518.6768        83.1423       511.9697
         190      5899.9902       519.1654        83.6489       512.3822
         191      5579.3848       519.6101        84.1535       512.7502
         192      5993.9492       520.0020        84.6566       513.0647
         193      5782.9629       520.3503        85.1565       513.3350
         194      5355.0508       520.6556        85.6544       513.5616
         195      4878.0459       520.9089        86.1492       513.7358
         196      5550.8359       521.1110        86.6427       513.8577
         197      5469.1372       521.2615        87.1301       513.9279
         198      5949.8149       521.3614        87.6170       513.9465
         199      5413.2080       521.4109        88.1008       513.9140
         200      5985.7788       521.4192        88.5822       513.8397
         201      5165.7939       521.3687        89.0593       513.7059
         202      5786.8398       521.2686        89.5330       513.5219
         203      6000.0869       521.1195        90.0044       513.2882
         204      6317.9619       520.9126        90.4716       512.9960
         205      5730.7661       520.6664        90.9369       512.6636
         206      5690.1118       520.3629        91.3965       512.2735
         207      5410.2979       520.0208        91.8554       511.8440
         208      5398.6011       519.6219        92.3084       511.3571
         209      4530.5581       519.1760        92.7588       510.8224
         210      6081.5200       518.6833        93.2059       510.2401
         211      5932.8340       518.1442        93.6504       509.6107
         212      5677.1431       517.5587        94.0905       508.9341
         213      6116.6250       516.9270        94.5260       508.2109
         214      5683.5190       516.2499        94.9596       507.4412
         215      6817.2051       515.5187        95.3888       506.6167
         216      5866.3379       514.7508        95.8136       505.7550
         217      5351.4009       513.9295        96.2349       504.8390
         218      6212.5381       513.0725        96.6532       503.8865
         219      5315.8950       512.1621        97.0659       502.8799
         220      6270.8149       511.2167        97.4763       501.8375
         221      6265.1230       510.2189        97.8823       500.7418
         222      6218.2212       509.1860        98.2841       499.6104
         223      5751.6421       508.1013        98.6820       498.4263
         224      5344.3340       506.9823        99.0762       497.2072
         225      5391.1509       505.8118        99.4653       495.9357
         226      5923.9370       504.6074        99.8509       494.6296
         227      5969.0122       503.3520       100.2310       493.2717
         228      4884.5962       502.0633       100.6085       491.8796
         229      5079.5581       500.7242       100.9801       490.4363
         230      5578.1421       499.3522       101.3490       488.9591
         231      5896.3159       497.9384       101.7116       487.4396
         232      6553.2412       496.4838       102.0714       485.8782
         233      6165.4888       494.9797       102.4241       484.2666
         234      4896.1279       493.4435       102.7743       482.6219
         235      6059.9888       491.8666       103.1189       480.9358
         236      6220.1528       490.2496       103.4592       479.2086
         237      5028.1128       488.6009       103.7947       477.4489
         238      5943.4951       486.9039       104.1247       475.6400
         239      5748.7158       485.1672       104.4495       473.7905
         240      6133.1118       483.3995       104.7702       471.9091
         241      5693.0161       481.5842       105.0849       469.9792
         242      5367.8550       479.7382       105.3955       468.0177
         243      5632.0342       477.8532       105.6998       466.0163
         244      5154.1621       475.9296       105.9991       463.9754
         245      6438.9722       473.9675       106.2928       461.8951
         246      5711.5088       471.9670       106.5800       459.7755
         247      6066.6528       469.9368       106.8639       457.6251
         248      5677.4399       467.8605       107.1409       455.4276
         249      4630.8081       465.7544       107.4119       453.1996
         250      5513.4531       463.6110       107.6782       450.9330
         251      4840.8940       461.4301       107.9379       448.6281
         252      5831.2119       459.2201       108.1922       446.2931
         253      5187.8770       456.9730       108.4406       443.9200
         254      4779.2290       454.6890       108.6823       441.5090
         255      5241.3799       452.3762       108.9178       439.0685
         256      6079.6499       450.0351       109.1487       436.5983
         257      5303.8130       447.6577       109.3733       434.0909
         258      5149.0361       445.2520       109.5922       431.5541
         259      4804.9600       442.8259       109.8048       428.9962
         260      5446.5049       440.3643       110.0121       426.4013
