# Wilkinson Microwave Anisotropy Probe (WMAP) 7-year data release.
# WMAP 7-Year Combined BB Power Spectrum, version 4.1 (October 2010)
#
# References: - WMAP Explanatory Supplement: http://lambda.gsfc.nasa.gov/
#             - Larson, et al. (2010)
#
# Column 1 = multipole moment l.
# Column 2 = BB power spectrum, l(l+1)/2pi * C_l, units = uK^2.
#            The Master estimate is used.
# Column 3 = 'Error' derived from diagonal terms of Fisher matrix, units = uK^2.
#            These are included only as an estimate of their magnitude.
#            The multipole moments are slightly coupled, so a correct
#            treatment of errors requires use of the entire Fisher matrix
#            or the WMAP likelihood code.
#            Additionally, because the error bars are Master estimates,
#            they do not capture the asymmetry and non-Gaussianity 
#            of the likelihood for low multipole moments l.
# Column 4 = portion of column 3 error attributed to measurement errors,
#            in '2SN + NN' form, units = uK^2.
# Column 5 = portion of column 3 error attributed to cosmic variance, 
#            assuming the best-fit LCDM model.
#
    2        0.155922        0.041862        0.041862        0.000002
    3       -0.105879        0.053226        0.053226        0.000003
    4       -0.191129        0.063881        0.063881        0.000004
    5       -0.091191        0.074690        0.074690        0.000006
    6        0.278569        0.085976        0.085976        0.000007
    7       -0.036260        0.097733        0.097733        0.000009
    8        0.047437        0.109942        0.109942        0.000011
    9       -0.501981        0.122541        0.122541        0.000012
   10        0.076569        0.135525        0.135525        0.000014
   11       -0.030262        0.148870        0.148870        0.000016
   12        0.020032        0.162570        0.162570        0.000018
   13        0.740477        0.176631        0.176631        0.000020
   14       -0.095988        0.191062        0.191062        0.000022
   15        0.175303        0.205841        0.205841        0.000024
   16        0.246208        0.220981        0.220981        0.000026
   17       -0.019979        0.236461        0.236461        0.000028
   18       -0.084575        0.252287        0.252287        0.000030
   19       -0.475602        0.268455        0.268455        0.000032
   20        0.333952        0.284959        0.284959        0.000034
   21       -0.055131        0.301805        0.301805        0.000036
   22       -0.036985        0.318989        0.318989        0.000038
   23        0.080195        0.336498        0.336498        0.000040
   24       -0.248818        0.354342        0.354342        0.000042
   25       -0.211523        0.372515        0.372515        0.000044
   26        0.340123        0.391015        0.391015        0.000046
   27        0.330474        0.409850        0.409850        0.000048
   28       -0.014497        0.428999        0.428999        0.000050
   29        0.018319        0.448475        0.448475        0.000052
   30       -0.425911        0.468288        0.468288        0.000054
   31        0.777789        0.488416        0.488416        0.000056
   32        0.173831        0.508865        0.508865        0.000058
   33        0.981096        0.529656        0.529656        0.000061
   34       -0.022560        0.550751        0.550751        0.000063
   35        1.134837        0.572182        0.572182        0.000065
   36        0.419078        0.593940        0.593940        0.000067
   37       -0.784401        0.616012        0.616012        0.000070
   38        0.025297        0.638421        0.638421        0.000072
   39        0.157148        0.661158        0.661158        0.000075
   40       -0.597566        0.684211        0.684211        0.000078
   41        0.917898        0.707592        0.707592        0.000081
   42       -0.367490        0.731306        0.731306        0.000084
   43        1.086889        0.755372        0.755372        0.000087
   44        0.620271        0.779735        0.779735        0.000090
   45       -0.301668        0.804451        0.804451        0.000094
   46       -1.483192        0.829496        0.829496        0.000098
   47        0.897298        0.854872        0.854872        0.000101
   48        0.443859        0.880582        0.880582        0.000105
   49       -0.129184        0.906645        0.906645        0.000109
   50        0.094862        0.933044        0.933044        0.000114
   51       -0.412394        0.959780        0.959780        0.000118
   52        0.598472        0.986848        0.986848        0.000123
   53       -0.497812        1.014288        1.014288        0.000128
   54       -2.163269        1.042056        1.042056        0.000133
   55       -0.321185        1.070175        1.070175        0.000138
   56       -1.155522        1.098644        1.098644        0.000143
   57        1.312767        1.127478        1.127478        0.000149
   58       -0.422282        1.156657        1.156657        0.000154
   59        1.172571        1.186204        1.186204        0.000160
   60       -0.132507        1.216092        1.216092        0.000166
   61       -1.426735        1.246349        1.246349        0.000172
   62       -1.565634        1.276982        1.276982        0.000178
   63        0.589771        1.307973        1.307973        0.000184
   64        0.980074        1.339329        1.339329        0.000190
   65        5.074083        1.371055        1.371055        0.000196
   66       -1.974706        1.403180        1.403180        0.000202
   67       -1.053278        1.435668        1.435668        0.000208
   68       -1.229815        1.468525        1.468525        0.000215
   69        1.354237        1.501797        1.501797        0.000221
   70        0.429777        1.535444        1.535444        0.000227
   71       -0.981039        1.569459        1.569459        0.000233
   72       -1.043195        1.603897        1.603897        0.000239
   73       -1.848805        1.638703        1.638703        0.000245
   74        1.311641        1.673935        1.673935        0.000251
   75        0.170329        1.709542        1.709542        0.000257
   76       -0.463518        1.745576        1.745576        0.000263
   77       -1.648492        1.782021        1.782021        0.000269
   78        1.093167        1.818869        1.818869        0.000274
   79       -1.300403        1.856140        1.856140        0.000279
   80       -0.006093        1.893823        1.893823        0.000285
   81        1.943754        1.931939        1.931939        0.000290
   82       -0.835638        1.970486        1.970486        0.000295
   83       -0.205896        2.009439        2.009439        0.000300
   84       -1.368200        2.048859        2.048859        0.000305
   85       -1.474670        2.088692        2.088692        0.000309
   86        2.964985        2.128993        2.128993        0.000314
   87        0.899723        2.169738        2.169738        0.000318
   88       -2.668974        2.210918        2.210918        0.000323
   89        3.031759        2.252542        2.252542        0.000327
   90        5.460423        2.294655        2.294655        0.000331
   91       -2.825850        2.337211        2.337211        0.000335
   92       -0.156862        2.380229        2.380229        0.000339
   93        5.909275        2.423746        2.423746        0.000343
   94        2.381727        2.467730        2.467730        0.000347
   95        0.168468        2.512173        2.512173        0.000351
   96       -4.197264        2.557116        2.557116        0.000355
   97       -1.542132        2.602528        2.602528        0.000359
   98       -0.339334        2.648467        2.648467        0.000363
   99        2.299535        2.694884        2.694884        0.000367
  100       -3.019679        2.741787        2.741787        0.000371
  101        3.613951        2.789200        2.789200        0.000375
  102       -1.392009        2.837149        2.837149        0.000379
  103       -0.248643        2.885583        2.885583        0.000383
  104        2.129620        2.934562        2.934562        0.000388
  105        5.132428        2.984041        2.984041        0.000392
  106       -5.154212        3.034056        3.034056        0.000397
  107       -1.179835        3.084608        3.084608        0.000402
  108        4.148008        3.135694        3.135694        0.000407
  109        1.103006        3.187312        3.187312        0.000412
  110       -1.350690        3.239504        3.239504        0.000418
  111        2.505965        3.292203        3.292203        0.000423
  112       -3.424508        3.345493        3.345493        0.000429
  113        2.892641        3.399334        3.399334        0.000435
  114       -4.854176        3.453718        3.453718        0.000441
  115       -0.290228        3.508682        3.508682        0.000448
  116       -1.540026        3.564273        3.564273        0.000455
  117        0.198817        3.620374        3.620374        0.000461
  118        0.570398        3.677067        3.677067        0.000469
  119        3.262136        3.734356        3.734356        0.000476
  120        6.733366        3.792239        3.792239        0.000483
  121        4.059455        3.850730        3.850730        0.000491
  122        1.678550        3.909830        3.909830        0.000499
  123       -3.767325        3.969537        3.969537        0.000507
  124        3.470800        4.029813        4.029813        0.000515
  125        0.249734        4.090752        4.090752        0.000524
  126        2.775048        4.152315        4.152315        0.000532
  127        4.489465        4.214460        4.214460        0.000541
  128        4.249151        4.277291        4.277291        0.000549
  129        4.498921        4.340724        4.340723        0.000558
  130       10.256960        4.404784        4.404784        0.000567
  131       -2.478390        4.469510        4.469510        0.000575
  132       -5.842353        4.534904        4.534904        0.000584
  133       10.842260        4.600988        4.600988        0.000593
  134       -4.163456        4.667731        4.667731        0.000602
  135       -2.926987        4.735080        4.735080        0.000611
  136       -3.817026        4.803187        4.803187        0.000620
  137       -3.193482        4.871822        4.871822        0.000628
  138        1.227992        4.941198        4.941198        0.000637
  139       -3.361586        5.011378        5.011378        0.000646
  140        0.706703        5.082224        5.082224        0.000654
  141        8.633554        5.153706        5.153706        0.000663
  142        2.401536        5.226025        5.226025        0.000671
  143       -5.540528        5.298971        5.298971        0.000679
  144      -11.902130        5.372639        5.372639        0.000687
  145       -6.943676        5.447066        5.447066        0.000695
  146       -5.493771        5.522275        5.522275        0.000703
  147       -5.738375        5.598112        5.598112        0.000711
  148        9.148603        5.674823        5.674823        0.000719
  149       -2.469518        5.752152        5.752152        0.000726
  150       -9.032941        5.830356        5.830356        0.000733
  151       -6.532392        5.909359        5.909359        0.000741
  152       -9.485885        5.988981        5.988981        0.000748
  153       -2.606855        6.069558        6.069558        0.000755
  154       -3.844818        6.150923        6.150923        0.000762
  155       -1.420893        6.233026        6.233026        0.000769
  156        6.868845        6.315921        6.315921        0.000776
  157        3.030245        6.399559        6.399559        0.000783
  158       13.532070        6.484244        6.484244        0.000790
  159       -2.418087        6.569630        6.569630        0.000797
  160       -8.384608        6.656010        6.656009        0.000804
  161       -2.718027        6.743046        6.743046        0.000811
  162       -6.993360        6.831079        6.831079        0.000818
  163       -3.805922        6.919776        6.919776        0.000825
  164       -7.422606        7.009580        7.009580        0.000832
  165       -2.476067        7.100092        7.100092        0.000839
  166        9.226867        7.191636        7.191636        0.000847
  167        3.275857        7.284132        7.284132        0.000854
  168       -9.303337        7.377242        7.377242        0.000862
  169        2.546625        7.471491        7.471491        0.000870
  170        0.068811        7.566583        7.566583        0.000878
  171       -2.308110        7.662874        7.662874        0.000886
  172        3.504458        7.759817        7.759817        0.000894
  173      -17.563830        7.857780        7.857780        0.000903
  174       -8.007296        7.956843        7.956843        0.000912
  175        1.811040        8.056794        8.056794        0.000921
  176       13.626210        8.157751        8.157751        0.000930
  177       -6.592300        8.259579        8.259579        0.000939
  178        3.217184        8.362533        8.362533        0.000949
  179       -4.997737        8.466574        8.466573        0.000959
  180       -0.420664        8.571369        8.571369        0.000969
  181       -7.497400        8.677418        8.677418        0.000979
  182        1.814887        8.784560        8.784560        0.000990
  183       -3.134606        8.892592        8.892592        0.001000
  184        0.553766        9.001884        9.001884        0.001011
  185       -8.703792        9.112193        9.112193        0.001022
  186        0.427092        9.223476        9.223476        0.001034
  187       14.223600        9.335991        9.335991        0.001045
  188       12.742490        9.449482        9.449482        0.001057
  189       10.283530        9.564236        9.564236        0.001068
  190       -3.786646        9.679927        9.679927        0.001080
  191      -21.371940        9.796900        9.796900        0.001092
  192        9.768892        9.915038        9.915038        0.001104
  193       -7.149341       10.034203       10.034203        0.001116
  194        5.277883       10.154644       10.154644        0.001128
  195        2.144889       10.276290       10.276290        0.001140
  196       -4.784962       10.399044       10.399044        0.001152
  197       -9.544812       10.523044       10.523044        0.001164
  198        5.019930       10.648300       10.648300        0.001176
  199      -16.626730       10.774695       10.774694        0.001188
  200        1.721494       10.902371       10.902371        0.001200
  201       31.960990       11.031153       11.031153        0.001211
  202        1.114591       11.161429       11.161429        0.001223
  203       -2.578047       11.292819       11.292819        0.001235
  204       20.233330       11.425474       11.425473        0.001246
  205        6.579599       11.559450       11.559450        0.001257
  206       16.715970       11.694839       11.694839        0.001268
  207        3.984308       11.831389       11.831389        0.001279
  208      -11.073370       11.969212       11.969212        0.001290
  209        2.174073       12.108432       12.108432        0.001301
  210      -28.212710       12.249293       12.249293        0.001311
  211        8.067119       12.391131       12.391131        0.001322
  212        3.547476       12.534428       12.534428        0.001332
  213        9.088276       12.679007       12.679007        0.001342
  214       15.127560       12.825290       12.825290        0.001352
  215       19.120150       12.972661       12.972661        0.001361
  216        2.778392       13.121667       13.121667        0.001371
  217       -5.422636       13.271810       13.271810        0.001380
  218      -11.764840       13.423564       13.423564        0.001390
  219       -2.196393       13.577019       13.577019        0.001399
  220       -2.924856       13.731579       13.731579        0.001408
  221       -5.898608       13.887772       13.887772        0.001417
  222      -22.402430       14.045363       14.045363        0.001426
  223       -4.978945       14.204475       14.204475        0.001435
  224       -0.770741       14.365210       14.365210        0.001444
  225        1.985416       14.527261       14.527261        0.001453
  226       11.643400       14.691008       14.691008        0.001462
  227      -10.681440       14.856368       14.856368        0.001471
  228       -7.812218       15.023234       15.023234        0.001480
  229      -18.310830       15.191483       15.191482        0.001489
  230       17.258210       15.361522       15.361521        0.001498
  231        2.567383       15.533189       15.533189        0.001507
  232      -16.514370       15.706261       15.706261        0.001516
  233        7.174556       15.881275       15.881275        0.001526
  234        6.529793       16.057687       16.057687        0.001535
  235      -18.927440       16.235844       16.235844        0.001545
  236        3.222205       16.415647       16.415647        0.001555
  237       22.662780       16.597264       16.597264        0.001564
  238       -4.759306       16.780496       16.780496        0.001574
  239       20.453430       16.965431       16.965431        0.001585
  240        5.707618       17.152250       17.152250        0.001595
  241       16.406630       17.340587       17.340587        0.001605
  242      -15.223520       17.530832       17.530832        0.001616
  243      -28.327370       17.722866       17.722866        0.001627
  244      -27.359020       17.916678       17.916678        0.001637
  245      -17.414780       18.112311       18.112311        0.001648
  246      -26.303200       18.309824       18.309824        0.001660
  247       16.245370       18.509105       18.509105        0.001671
  248        7.911917       18.710301       18.710300        0.001682
  249       30.411340       18.913460       18.913460        0.001693
  250      -21.369630       19.118411       19.118411        0.001705
  251      -13.995040       19.325297       19.325297        0.001716
  252      -23.871930       19.534299       19.534299        0.001728
  253        8.155967       19.745029       19.745028        0.001739
  254      -24.194120       19.957739       19.957739        0.001751
  255       -6.996488       20.172540       20.172540        0.001763
  256       15.482290       20.389361       20.389361        0.001774
  257       26.166020       20.608132       20.608132        0.001786
  258       -5.771894       20.829007       20.829007        0.001797
  259        3.653305       21.052060       21.052060        0.001808
  260      -13.316600       21.277076       21.277076        0.001819
  261      -10.838600       21.504364       21.504364        0.001830
  262       16.891750       21.733660       21.733660        0.001841
  263       24.953310       21.965188       21.965188        0.001852
  264       -6.487304       22.198837       22.198837        0.001862
  265       -7.931425       22.434619       22.434619        0.001873
  266       -3.116160       22.672683       22.672683        0.001883
  267      -29.997580       22.913035       22.913035        0.001893
  268      -29.640030       23.155589       23.155589        0.001902
  269       -6.709841       23.400500       23.400500        0.001912
  270      -24.620390       23.647718       23.647718        0.001921
